溫度1，執行#1
時間 ( 秒 )	溫度1 ( °C )
0.0000	23.33
0.5000	23.32
1.0000	23.32
1.5000	23.31
2.0000	23.31
2.5000	23.31
3.0000	23.31
3.5000	23.31
4.0000	23.30
4.5000	23.29
5.0000	23.29
5.5000	23.28
6.0000	23.27
6.5000	23.26
7.0000	23.26
7.5000	23.25
8.0000	23.25
8.5000	23.24
9.0000	23.24
9.5000	23.23
10.0000	23.23
10.5000	23.23
11.0000	23.23
11.5000	23.21
12.0000	23.21
12.5000	23.23
13.0000	23.24
13.5000	23.25
14.0000	23.26
14.5000	23.27
15.0000	23.29
15.5000	23.32
16.0000	23.33
16.5000	23.35
17.0000	23.37
17.5000	23.40
18.0000	23.43
18.5000	23.46
19.0000	23.50
19.5000	23.54
20.0000	23.57
20.5000	23.61
21.0000	23.64
21.5000	23.68
22.0000	23.71
22.5000	23.74
23.0000	23.77
23.5000	23.80
24.0000	23.84
24.5000	23.87
25.0000	23.91
25.5000	23.95
26.0000	23.99
26.5000	24.02
27.0000	24.06
27.5000	24.10
28.0000	24.14
28.5000	24.17
29.0000	24.20
29.5000	24.24
30.0000	24.28
30.5000	24.32
31.0000	24.35
31.5000	24.39
32.0000	24.43
32.5000	24.46
33.0000	24.49
33.5000	24.52
34.0000	24.55
34.5000	24.59
35.0000	24.61
35.5000	24.64
36.0000	24.66
36.5000	24.68
37.0000	24.71
37.5000	24.73
38.0000	24.75
38.5000	24.78
39.0000	24.80
39.5000	24.83
40.0000	24.85
40.5000	24.89
41.0000	24.92
41.5000	24.94
42.0000	24.96
42.5000	24.99
43.0000	25.02
43.5000	25.04
44.0000	25.06
44.5000	25.08
45.0000	25.10
45.5000	25.12
46.0000	25.15
46.5000	25.17
47.0000	25.19
47.5000	25.21
48.0000	25.23
48.5000	25.25
49.0000	25.28
49.5000	25.30
50.0000	25.32
50.5000	25.34
51.0000	25.37
51.5000	25.39
52.0000	25.39
52.5000	25.40
53.0000	25.41
53.5000	25.43
54.0000	25.45
54.5000	25.47
55.0000	25.48
55.5000	25.49
56.0000	25.52
56.5000	25.54
57.0000	25.56
57.5000	25.58
58.0000	25.60
58.5000	25.60
59.0000	25.61
59.5000	25.63
60.0000	25.64
60.5000	25.65
61.0000	25.66
61.5000	25.68
62.0000	25.69
62.5000	25.71
63.0000	25.73
63.5000	25.73
64.0000	25.74
64.5000	25.75
65.0000	25.76
65.5000	25.78
66.0000	25.79
66.5000	25.80
67.0000	25.82
67.5000	25.84
68.0000	25.85
68.5000	25.87
69.0000	25.87
69.5000	25.88
70.0000	25.89
70.5000	25.90
71.0000	25.90
71.5000	25.88
72.0000	25.89
72.5000	25.90
73.0000	25.90
73.5000	25.90
74.0000	25.88
74.5000	25.89
75.0000	25.91
75.5000	25.92
76.0000	25.92
76.5000	25.92
77.0000	25.92
77.5000	25.92
78.0000	25.92
78.5000	25.92
79.0000	25.93
79.5000	25.93
80.0000	25.93
80.5000	25.94
81.0000	25.94
81.5000	25.95
82.0000	25.96
82.5000	25.97
83.0000	25.99
83.5000	26.00
84.0000	26.01
84.5000	26.01
85.0000	26.01
85.5000	26.00
86.0000	25.99
86.5000	26.00
87.0000	26.00
87.5000	25.98
88.0000	25.97
88.5000	25.98
89.0000	25.97
89.5000	25.97
90.0000	25.98
90.5000	25.98
91.0000	25.98
91.5000	25.98
92.0000	25.98
92.5000	25.97
93.0000	25.99
93.5000	25.99
94.0000	26.00
94.5000	26.01
95.0000	26.01
95.5000	26.02
96.0000	26.02
96.5000	26.03
97.0000	26.03
97.5000	26.03
98.0000	26.03
98.5000	26.03
99.0000	26.04
99.5000	26.04
100.0000	26.05
100.5000	26.06
101.0000	26.07
101.5000	26.08
102.0000	26.09
102.5000	26.10
103.0000	26.10
103.5000	26.11
104.0000	26.11
104.5000	26.11
105.0000	26.11
105.5000	26.10
106.0000	26.10
106.5000	26.08
107.0000	26.07
107.5000	26.07
108.0000	26.05
108.5000	26.05
109.0000	26.04
109.5000	26.03
110.0000	26.02
110.5000	26.03
111.0000	26.03
111.5000	26.04
112.0000	26.04
112.5000	26.05
113.0000	26.06
113.5000	26.06
114.0000	26.07
114.5000	26.07
115.0000	26.06
115.5000	26.05
116.0000	26.05
116.5000	26.05
117.0000	26.04
117.5000	26.05
118.0000	26.06
118.5000	26.06
119.0000	26.07
119.5000	26.08
120.0000	26.07
120.5000	26.08
121.0000	26.07
121.5000	26.08
122.0000	26.09
122.5000	26.09
123.0000	26.10
123.5000	26.11
124.0000	26.11
124.5000	26.12
125.0000	26.12
125.5000	26.11
126.0000	26.12
126.5000	26.13
127.0000	26.14
127.5000	26.14
128.0000	26.14
128.5000	26.13
129.0000	26.11
129.5000	26.12
130.0000	26.11
130.5000	26.11
131.0000	26.09
131.5000	26.07
132.0000	26.03
132.5000	26.01
133.0000	26.02
133.5000	26.03
134.0000	26.05
134.5000	26.07
135.0000	26.08
135.5000	26.11
136.0000	26.13
136.5000	26.16
137.0000	26.16
137.5000	26.14
138.0000	26.11
138.5000	26.11
139.0000	26.10
139.5000	26.11
140.0000	26.12
140.5000	26.13
141.0000	26.13
141.5000	26.15
142.0000	26.16
142.5000	26.17
143.0000	26.18
143.5000	26.19
144.0000	26.19
144.5000	26.20
145.0000	26.20
145.5000	26.20
146.0000	26.19
146.5000	26.20
147.0000	26.19
147.5000	26.20
148.0000	26.21
148.5000	26.21
149.0000	26.22
149.5000	26.24
150.0000	26.26
150.5000	26.27
151.0000	26.28
151.5000	26.29
152.0000	26.30
152.5000	26.30
153.0000	26.29
153.5000	26.31
154.0000	26.31
154.5000	26.32
155.0000	26.31
155.5000	26.31
156.0000	26.33
156.5000	26.34
157.0000	26.35
157.5000	26.35
158.0000	26.36
158.5000	26.37
159.0000	26.39
159.5000	26.39
160.0000	26.40
160.5000	26.40
161.0000	26.40
161.5000	26.39
162.0000	26.40
162.5000	26.39
163.0000	26.38
163.5000	26.38
164.0000	26.37
164.5000	26.37
165.0000	26.35
165.5000	26.34
166.0000	26.33
166.5000	26.32
167.0000	26.31
167.5000	26.30
168.0000	26.27
168.5000	26.25
169.0000	26.23
169.5000	26.20
170.0000	26.19
170.5000	26.16
171.0000	26.12
171.5000	26.08
172.0000	26.04
172.5000	26.01
173.0000	25.98
173.5000	25.96
174.0000	25.93
174.5000	25.89
175.0000	25.87
175.5000	25.84
176.0000	25.81
176.5000	25.78
177.0000	25.76
177.5000	25.73
178.0000	25.69
178.5000	25.66
179.0000	25.63
179.5000	25.60
180.0000	25.58
180.5000	25.55
181.0000	25.54
181.5000	25.52
182.0000	25.50
182.5000	25.47
183.0000	25.45
183.5000	25.41
184.0000	25.39
184.5000	25.37
185.0000	25.33
185.5000	25.30
186.0000	25.27
186.5000	25.25
187.0000	25.23
187.5000	25.20
188.0000	25.18
188.5000	25.15
189.0000	25.13
189.5000	25.11
190.0000	25.09
190.5000	25.07
191.0000	25.05
191.5000	25.03
192.0000	25.00
192.5000	24.97
193.0000	24.96
193.5000	24.95
194.0000	24.93
194.5000	24.92
195.0000	24.90
195.5000	24.90
196.0000	24.88
196.5000	24.87
197.0000	24.85
197.5000	24.84
198.0000	24.83
198.5000	24.81
199.0000	24.80
199.5000	24.79
200.0000	24.78
200.5000	24.77
201.0000	24.76
201.5000	24.74
202.0000	24.73
202.5000	24.72
203.0000	24.70
203.5000	24.69
204.0000	24.68
204.5000	24.67
205.0000	24.67
205.5000	24.66
206.0000	24.65
206.5000	24.63
207.0000	24.62
207.5000	24.61
208.0000	24.60
208.5000	24.60
209.0000	24.59
209.5000	24.58
210.0000	24.57
210.5000	24.55
211.0000	24.55
211.5000	24.54
212.0000	24.53
212.5000	24.53
213.0000	24.52
213.5000	24.51
214.0000	24.51
214.5000	24.49
215.0000	24.50
215.5000	24.48
216.0000	24.48
216.5000	24.47
217.0000	24.45
217.5000	24.44
218.0000	24.42
218.5000	24.41
219.0000	24.40
219.5000	24.39
220.0000	24.39
220.5000	24.38
221.0000	24.38
221.5000	24.38
222.0000	24.38
222.5000	24.36
223.0000	24.35
223.5000	24.35
224.0000	24.35
224.5000	24.35
225.0000	24.34
225.5000	24.35
226.0000	24.35
226.5000	24.34
227.0000	24.33
227.5000	24.33
228.0000	24.32
228.5000	24.32
229.0000	24.32
229.5000	24.32
230.0000	24.31
230.5000	24.32
231.0000	24.31
231.5000	24.31
232.0000	24.31
232.5000	24.31
233.0000	24.31
233.5000	24.30
234.0000	24.30
234.5000	24.31
235.0000	24.30
235.5000	24.30
236.0000	24.30
236.5000	24.31
237.0000	24.30
237.5000	24.30
238.0000	24.30
238.5000	24.29
239.0000	24.29
239.5000	24.29
240.0000	24.28
240.5000	24.28
241.0000	24.28
241.5000	24.27
242.0000	24.26
242.5000	24.25
243.0000	24.25
243.5000	24.24
244.0000	24.24
244.5000	24.23
245.0000	24.23
245.5000	24.23
246.0000	24.22
246.5000	24.22
247.0000	24.22
247.5000	24.21
248.0000	24.21
248.5000	24.19
249.0000	24.19
249.5000	24.18
250.0000	24.17
250.5000	24.17
251.0000	24.17
251.5000	24.17
252.0000	24.16
252.5000	24.16
253.0000	24.16
253.5000	24.15
254.0000	24.16
254.5000	24.15
255.0000	24.14
255.5000	24.14
256.0000	24.14
256.5000	24.14
257.0000	24.14
257.5000	24.14
258.0000	24.13
258.5000	24.12
259.0000	24.12
259.5000	24.09
260.0000	24.09
260.5000	24.09
261.0000	24.10
261.5000	24.10
262.0000	24.09
262.5000	24.09
263.0000	24.09
263.5000	24.09
264.0000	24.09
264.5000	24.07
265.0000	24.06
265.5000	24.05
266.0000	24.06
266.5000	24.06
267.0000	24.06
267.5000	24.07
268.0000	24.06
268.5000	24.06
269.0000	24.06
269.5000	24.06
270.0000	24.05
270.5000	24.06
271.0000	24.06
271.5000	24.05
272.0000	24.06
272.5000	24.05
273.0000	24.05
273.5000	24.04
274.0000	24.04
274.5000	24.04
275.0000	24.03
275.5000	24.02
276.0000	24.01
276.5000	24.00
277.0000	23.99
277.5000	23.98
278.0000	23.99
278.5000	23.99
279.0000	23.99
279.5000	23.99
280.0000	23.98
280.5000	23.98
281.0000	23.99
281.5000	23.99
282.0000	23.98
282.5000	23.99
283.0000	23.99
283.5000	23.99
284.0000	23.99
284.5000	23.99
285.0000	23.99
285.5000	23.99
286.0000	23.99
286.5000	23.99
287.0000	23.99
287.5000	24.00
288.0000	24.00
288.5000	24.00
289.0000	24.00
289.5000	24.01
290.0000	24.01
290.5000	24.00
291.0000	24.00
291.5000	24.00
292.0000	23.99
292.5000	23.99
293.0000	23.98
293.5000	23.98
294.0000	23.98
294.5000	23.98
295.0000	23.99
295.5000	23.98
296.0000	23.98
296.5000	23.97
297.0000	23.98
297.5000	23.97
298.0000	23.97
298.5000	23.96
299.0000	23.96
299.5000	23.95
300.0000	23.95
300.5000	23.94
301.0000	23.94
301.5000	23.94
302.0000	23.93
302.5000	23.93
303.0000	23.92
303.5000	23.92
304.0000	23.93
304.5000	23.93
305.0000	23.93
305.5000	23.93
306.0000	23.94
306.5000	23.95
307.0000	23.95
307.5000	23.95
308.0000	23.94
308.5000	23.94
309.0000	23.95
309.5000	23.95
310.0000	23.95
310.5000	23.95
311.0000	23.95
311.5000	23.95
312.0000	23.95
312.5000	23.95
313.0000	23.94
313.5000	23.95
314.0000	23.95
314.5000	23.95
315.0000	23.95
315.5000	23.95
316.0000	23.94
316.5000	23.95
317.0000	23.94
317.5000	23.94
318.0000	23.94
318.5000	23.93
319.0000	23.93
319.5000	23.93
320.0000	23.93
320.5000	23.93
321.0000	23.91
321.5000	23.91
322.0000	23.92
322.5000	23.91
323.0000	23.91
323.5000	23.91
324.0000	23.92
324.5000	23.91
325.0000	23.91
325.5000	23.90
326.0000	23.90
326.5000	23.90
327.0000	23.90
327.5000	23.90
328.0000	23.90
328.5000	23.89
329.0000	23.90
329.5000	23.89
330.0000	23.89
330.5000	23.89
331.0000	23.88
331.5000	23.89
332.0000	23.89
332.5000	23.89
333.0000	23.89
333.5000	23.89
334.0000	23.89
334.5000	23.89
335.0000	23.90
335.5000	23.90
336.0000	23.90
336.5000	23.90
337.0000	23.89
337.5000	23.90
338.0000	23.88
338.5000	23.88
339.0000	23.88
339.5000	23.87
340.0000	23.88
340.5000	23.87
341.0000	23.87
341.5000	23.87
342.0000	23.88
342.5000	23.87
343.0000	23.86
343.5000	23.86
344.0000	23.86
344.5000	23.85
345.0000	23.86
345.5000	23.85
346.0000	23.85
346.5000	23.85
347.0000	23.84
347.5000	23.84
348.0000	23.83
348.5000	23.82
349.0000	23.83
349.5000	23.83
350.0000	23.84
350.5000	23.84
351.0000	23.85
351.5000	23.85
352.0000	23.85
352.5000	23.85
353.0000	23.86
353.5000	23.85
354.0000	23.86
354.5000	23.86
355.0000	23.86
355.5000	23.87
356.0000	23.87
356.5000	23.86
357.0000	23.87
357.5000	23.86
358.0000	23.86
358.5000	23.86
359.0000	23.85
359.5000	23.85
360.0000	23.85
360.5000	23.85
361.0000	23.85
361.5000	23.85
362.0000	23.85
362.5000	23.85
363.0000	23.85
363.5000	23.85
364.0000	23.85
364.5000	23.83
365.0000	23.82
365.5000	23.82
366.0000	23.82
366.5000	23.82
367.0000	23.81
367.5000	23.80
368.0000	23.81
368.5000	23.81
369.0000	23.82
369.5000	23.82
370.0000	23.83
370.5000	23.81
371.0000	23.80
371.5000	23.80
372.0000	23.80
372.5000	23.81
373.0000	23.80
373.5000	23.81
374.0000	23.81
374.5000	23.81
375.0000	23.81
375.5000	23.80
376.0000	23.81
376.5000	23.80
377.0000	23.81
377.5000	23.81
378.0000	23.81
378.5000	23.81
379.0000	23.81
379.5000	23.81
380.0000	23.81
380.5000	23.80
381.0000	23.79
381.5000	23.79
382.0000	23.79
382.5000	23.79
383.0000	23.79
383.5000	23.79
384.0000	23.79
384.5000	23.78
385.0000	23.78
385.5000	23.78
386.0000	23.78
386.5000	23.78
387.0000	23.79
387.5000	23.79
388.0000	23.79
388.5000	23.79
389.0000	23.79
389.5000	23.79
390.0000	23.80
390.5000	23.80
391.0000	23.80
391.5000	23.80
392.0000	23.81
392.5000	23.80
393.0000	23.80
393.5000	23.81
394.0000	23.81
394.5000	23.81
395.0000	23.81
395.5000	23.80
396.0000	23.80
396.5000	23.80
397.0000	23.80
397.5000	23.80
398.0000	23.80
398.5000	23.81
399.0000	23.80
399.5000	23.80
400.0000	23.80
400.5000	23.80
401.0000	23.79
401.5000	23.79
402.0000	23.79
402.5000	23.79
403.0000	23.78
403.5000	23.78
404.0000	23.79
404.5000	23.78
405.0000	23.78
405.5000	23.78
406.0000	23.79
406.5000	23.79
407.0000	23.78
407.5000	23.78
408.0000	23.78
408.5000	23.79
409.0000	23.79
409.5000	23.78
410.0000	23.79
410.5000	23.78
411.0000	23.78
411.5000	23.78
412.0000	23.77
412.5000	23.77
413.0000	23.78
413.5000	23.78
414.0000	23.77
414.5000	23.78
415.0000	23.79
415.5000	23.78
416.0000	23.78
416.5000	23.78
417.0000	23.78
417.5000	23.79
418.0000	23.78
418.5000	23.79
419.0000	23.79
419.5000	23.79
420.0000	23.79
420.5000	23.79
421.0000	23.79
421.5000	23.79
422.0000	23.78
422.5000	23.78
423.0000	23.79
423.5000	23.78
424.0000	23.78
424.5000	23.77
425.0000	23.77
425.5000	23.76
426.0000	23.76
426.5000	23.75
427.0000	23.74
427.5000	23.74
428.0000	23.74
428.5000	23.74
429.0000	23.74
429.5000	23.74
430.0000	23.75
430.5000	23.74
431.0000	23.75
431.5000	23.74
432.0000	23.75
432.5000	23.74
433.0000	23.75
433.5000	23.75
434.0000	23.75
434.5000	23.74
435.0000	23.74
435.5000	23.73
436.0000	23.72
436.5000	23.72
437.0000	23.71
437.5000	23.70
438.0000	23.71
438.5000	23.71
439.0000	23.70
439.5000	23.69
440.0000	23.69
440.5000	23.68
441.0000	23.67
441.5000	23.67
442.0000	23.68
442.5000	23.67
443.0000	23.68
443.5000	23.68
444.0000	23.68
444.5000	23.68
445.0000	23.69
445.5000	23.70
446.0000	23.69
446.5000	23.69
447.0000	23.70
447.5000	23.70
448.0000	23.69
448.5000	23.68
449.0000	23.68
449.5000	23.67
450.0000	23.67
450.5000	23.67
451.0000	23.67
451.5000	23.67
452.0000	23.67
452.5000	23.68
453.0000	23.68
453.5000	23.67
454.0000	23.68
454.5000	23.68
455.0000	23.68
455.5000	23.68
456.0000	23.68
456.5000	23.66
457.0000	23.67
457.5000	23.67
458.0000	23.67
458.5000	23.67
459.0000	23.67
459.5000	23.68
460.0000	23.68
460.5000	23.68
461.0000	23.68
461.5000	23.68
462.0000	23.68
462.5000	23.67
463.0000	23.67
463.5000	23.68
464.0000	23.67
464.5000	23.68
465.0000	23.68
465.5000	23.68
466.0000	23.69
466.5000	23.69
467.0000	23.68
467.5000	23.69
468.0000	23.69
468.5000	23.69
469.0000	23.69
469.5000	23.69
470.0000	23.68
470.5000	23.69
471.0000	23.68
471.5000	23.68
472.0000	23.68
472.5000	23.67
473.0000	23.68
473.5000	23.67
474.0000	23.67
474.5000	23.67
475.0000	23.67
475.5000	23.68
476.0000	23.68
476.5000	23.67
477.0000	23.68
477.5000	23.68
478.0000	23.68
478.5000	23.68
479.0000	23.68
479.5000	23.67
480.0000	23.67
480.5000	23.66
481.0000	23.65
481.5000	23.65
482.0000	23.64
482.5000	23.63
483.0000	23.63
483.5000	23.63
484.0000	23.62
484.5000	23.62
485.0000	23.61
485.5000	23.58
486.0000	23.57
486.5000	23.57
487.0000	23.57
487.5000	23.56
488.0000	23.56
488.5000	23.56
489.0000	23.56
489.5000	23.56
490.0000	23.55
490.5000	23.55
491.0000	23.55
491.5000	23.55
492.0000	23.55
492.5000	23.54
493.0000	23.54
493.5000	23.53
494.0000	23.54
494.5000	23.53
495.0000	23.53
495.5000	23.52
496.0000	23.52
496.5000	23.51
497.0000	23.51
497.5000	23.51
498.0000	23.51
498.5000	23.50
499.0000	23.50
499.5000	23.50
500.0000	23.49
500.5000	23.49
501.0000	23.49
501.5000	23.47
502.0000	23.46
502.5000	23.46
503.0000	23.44
503.5000	23.44
504.0000	23.43
504.5000	23.44
505.0000	23.44
505.5000	23.44
506.0000	23.44
506.5000	23.44
507.0000	23.44
507.5000	23.44
508.0000	23.44
508.5000	23.44
509.0000	23.44
509.5000	23.43
510.0000	23.43
510.5000	23.43
511.0000	23.43
511.5000	23.43
512.0000	23.43
512.5000	23.43
513.0000	23.43
513.5000	23.44
514.0000	23.44
514.5000	23.44
515.0000	23.44
515.5000	23.45
516.0000	23.45
516.5000	23.44
517.0000	23.43
517.5000	23.44
518.0000	23.43
518.5000	23.43
519.0000	23.43
519.5000	23.44
520.0000	23.43
520.5000	23.44
521.0000	23.44
521.5000	23.44
522.0000	23.43
522.5000	23.44
523.0000	23.44
523.5000	23.44
524.0000	23.44
524.5000	23.44
525.0000	23.44
525.5000	23.44
526.0000	23.44
526.5000	23.44
527.0000	23.44
527.5000	23.43
528.0000	23.43
528.5000	23.43
529.0000	23.42
529.5000	23.42
530.0000	23.42
530.5000	23.42
531.0000	23.42
531.5000	23.42
532.0000	23.42
532.5000	23.42
533.0000	23.42
533.5000	23.43
534.0000	23.43
534.5000	23.43
535.0000	23.43
535.5000	23.43
536.0000	23.43
536.5000	23.43
537.0000	23.43
537.5000	23.43
538.0000	23.43
538.5000	23.43
539.0000	23.43
539.5000	23.43
540.0000	23.42
540.5000	23.42
541.0000	23.41
541.5000	23.41
542.0000	23.42
542.5000	23.41
543.0000	23.41
543.5000	23.42
544.0000	23.42
544.5000	23.42
545.0000	23.42
545.5000	23.41
546.0000	23.41
546.5000	23.41
547.0000	23.41
547.5000	23.41
548.0000	23.41
548.5000	23.41
549.0000	23.41
549.5000	23.41
550.0000	23.40
550.5000	23.40
551.0000	23.40
551.5000	23.40
552.0000	23.40
552.5000	23.40
553.0000	23.39
553.5000	23.39
554.0000	23.39
554.5000	23.39
555.0000	23.39
555.5000	23.40
556.0000	23.39
556.5000	23.39
557.0000	23.39
557.5000	23.38
558.0000	23.39
558.5000	23.38
559.0000	23.39
559.5000	23.39
560.0000	23.39
560.5000	23.39
561.0000	23.39
561.5000	23.39
562.0000	23.39
562.5000	23.39
563.0000	23.38
563.5000	23.39
564.0000	23.38
564.5000	23.37
565.0000	23.36
565.5000	23.36
566.0000	23.36
566.5000	23.36
567.0000	23.36
567.5000	23.36
568.0000	23.36
568.5000	23.35
569.0000	23.35
569.5000	23.35
570.0000	23.35
570.5000	23.35
571.0000	23.35
571.5000	23.35
572.0000	23.34
572.5000	23.34
573.0000	23.33
573.5000	23.33
574.0000	23.33
574.5000	23.33
575.0000	23.33
575.5000	23.32
576.0000	23.31
576.5000	23.31
577.0000	23.30
577.5000	23.30
578.0000	23.30
578.5000	23.28
579.0000	23.26
579.5000	23.25
580.0000	23.24
580.5000	23.24
581.0000	23.24
581.5000	23.24
582.0000	23.24
582.5000	23.24
583.0000	23.24
583.5000	23.24
584.0000	23.24
584.5000	23.24
585.0000	23.24
585.5000	23.25
586.0000	23.24
586.5000	23.23
587.0000	23.23
587.5000	23.22
588.0000	23.21
588.5000	23.21
589.0000	23.20
589.5000	23.21
590.0000	23.20
590.5000	23.20
591.0000	23.19
591.5000	23.18
592.0000	23.17
592.5000	23.17
593.0000	23.17
593.5000	23.17
594.0000	23.17
594.5000	23.16
595.0000	23.17
595.5000	23.17
596.0000	23.17
596.5000	23.17
597.0000	23.18
597.5000	23.18
598.0000	23.18
598.5000	23.18
599.0000	23.18
599.5000	23.18
600.0000	23.18
600.5000	23.17
601.0000	23.16
601.5000	23.16
602.0000	23.15
602.5000	23.13
603.0000	23.12
603.5000	23.11
604.0000	23.10
604.5000	23.09
605.0000	23.08
605.5000	23.07
606.0000	23.07
606.5000	23.06
607.0000	23.05
607.5000	23.05
608.0000	23.04
608.5000	23.04
609.0000	23.04
609.5000	23.03
610.0000	23.02
610.5000	23.01
611.0000	23.01
611.5000	23.00
612.0000	22.99
612.5000	23.00
613.0000	23.00
613.5000	22.99
614.0000	23.00
614.5000	23.01
615.0000	23.00
615.5000	23.01
616.0000	23.00
616.5000	23.00
617.0000	23.01
617.5000	23.01
618.0000	23.02
618.5000	23.03
619.0000	23.02
619.5000	23.02
620.0000	23.02
620.5000	23.01
621.0000	23.00
621.5000	22.99
622.0000	22.97
622.5000	22.96
623.0000	22.96
623.5000	22.96
624.0000	22.95
624.5000	22.95
625.0000	22.95
625.5000	22.95
626.0000	22.95
626.5000	22.94
627.0000	22.95
627.5000	22.95
628.0000	22.95
628.5000	22.94
629.0000	22.93
629.5000	22.93
630.0000	22.93
630.5000	22.93
631.0000	22.93
631.5000	22.93
632.0000	22.93
632.5000	22.93
633.0000	22.93
633.5000	22.94
634.0000	22.95
634.5000	22.94
635.0000	22.94
635.5000	22.95
636.0000	22.94
636.5000	22.94
637.0000	22.94
637.5000	22.93
638.0000	22.93
638.5000	22.91
639.0000	22.92
639.5000	22.91
640.0000	22.90
640.5000	22.90
641.0000	22.90
641.5000	22.90
642.0000	22.90
642.5000	22.90
643.0000	22.90
643.5000	22.90
644.0000	22.90
644.5000	22.89
645.0000	22.89
645.5000	22.89
646.0000	22.89
646.5000	22.89
647.0000	22.88
647.5000	22.88
648.0000	22.88
648.5000	22.87
649.0000	22.87
649.5000	22.86
650.0000	22.87
650.5000	22.87
651.0000	22.86
651.5000	22.87
652.0000	22.87
652.5000	22.87
653.0000	22.88
653.5000	22.88
654.0000	22.88
654.5000	22.87
655.0000	22.88
655.5000	22.88
656.0000	22.87
656.5000	22.87
657.0000	22.87
657.5000	22.87
658.0000	22.87
658.5000	22.87
659.0000	22.87
659.5000	22.88
660.0000	22.88
660.5000	22.88
661.0000	22.88
661.5000	22.88
662.0000	22.89
662.5000	22.88
663.0000	22.88
663.5000	22.88
664.0000	22.88
664.5000	22.89
665.0000	22.89
665.5000	22.88
666.0000	22.89
666.5000	22.88
667.0000	22.88
667.5000	22.89
668.0000	22.89
668.5000	22.89
669.0000	22.90
669.5000	22.90
670.0000	22.90
670.5000	22.91
671.0000	22.91
671.5000	22.91
672.0000	22.91
672.5000	22.91
673.0000	22.90
673.5000	22.90
674.0000	22.89
674.5000	22.90
675.0000	22.90
675.5000	22.89
676.0000	22.89
676.5000	22.88
677.0000	22.89
677.5000	22.88
678.0000	22.89
678.5000	22.89
679.0000	22.88
679.5000	22.88
680.0000	22.88
680.5000	22.87
681.0000	22.87
681.5000	22.88
682.0000	22.87
682.5000	22.87
683.0000	22.87
683.5000	22.86
684.0000	22.85
684.5000	22.87
685.0000	22.86
685.5000	22.86
686.0000	22.86
686.5000	22.86
687.0000	22.86
687.5000	22.87
688.0000	22.86
688.5000	22.86
689.0000	22.86
689.5000	22.86
690.0000	22.86
690.5000	22.85
691.0000	22.86
691.5000	22.86
692.0000	22.86
692.5000	22.86
693.0000	22.85
693.5000	22.84
694.0000	22.84
694.5000	22.84
695.0000	22.84
695.5000	22.84
696.0000	22.85
696.5000	22.85
697.0000	22.85
697.5000	22.84
698.0000	22.85
698.5000	22.84
699.0000	22.84
699.5000	22.85
700.0000	22.85
700.5000	22.85
701.0000	22.85
701.5000	22.84
702.0000	22.84
702.5000	22.85
703.0000	22.85
703.5000	22.85
704.0000	22.86
704.5000	22.86
705.0000	22.86
705.5000	22.86
706.0000	22.86
706.5000	22.86
707.0000	22.86
707.5000	22.87
708.0000	22.87
708.5000	22.87
709.0000	22.86
709.5000	22.87
710.0000	22.87
710.5000	22.87
711.0000	22.87
711.5000	22.86
712.0000	22.87
712.5000	22.87
713.0000	22.86
713.5000	22.87
714.0000	22.86
714.5000	22.87
715.0000	22.87
715.5000	22.87
716.0000	22.87
716.5000	22.87
717.0000	22.87
717.5000	22.87
718.0000	22.88
718.5000	22.87
719.0000	22.87
719.5000	22.88
720.0000	22.87
720.5000	22.88
721.0000	22.88
721.5000	22.88
722.0000	22.88
722.5000	22.88
723.0000	22.88
723.5000	22.89
724.0000	22.88
724.5000	22.88
725.0000	22.88
725.5000	22.88
726.0000	22.87
726.5000	22.87
727.0000	22.87
727.5000	22.87
728.0000	22.87
728.5000	22.87
729.0000	22.87
729.5000	22.87
730.0000	22.86
730.5000	22.87
731.0000	22.88
731.5000	22.88
732.0000	22.88
732.5000	22.88
733.0000	22.88
733.5000	22.89
734.0000	22.89
734.5000	22.89
735.0000	22.89
735.5000	22.89
736.0000	22.89
736.5000	22.90
737.0000	22.90
737.5000	22.90
738.0000	22.90
738.5000	22.90
739.0000	22.90
739.5000	22.90
740.0000	22.89
740.5000	22.90
741.0000	22.90
741.5000	22.90
742.0000	22.89
742.5000	22.90
743.0000	22.90
743.5000	22.90
744.0000	22.90
744.5000	22.90
745.0000	22.91
745.5000	22.91
746.0000	22.91
746.5000	22.91
747.0000	22.91
747.5000	22.92
748.0000	22.91
748.5000	22.92
749.0000	22.91
749.5000	22.92
750.0000	22.92
750.5000	22.92
751.0000	22.92
751.5000	22.92
752.0000	22.92
752.5000	22.92
753.0000	22.91
753.5000	22.91
754.0000	22.91
754.5000	22.91
755.0000	22.91
755.5000	22.92
756.0000	22.92
756.5000	22.91
757.0000	22.91
757.5000	22.91
758.0000	22.91
758.5000	22.91
759.0000	22.90
759.5000	22.91
760.0000	22.90
760.5000	22.91
761.0000	22.91
761.5000	22.90
762.0000	22.91
762.5000	22.91
763.0000	22.91
763.5000	22.92
764.0000	22.91
764.5000	22.91
765.0000	22.91
765.5000	22.92
766.0000	22.92
766.5000	22.92
767.0000	22.92
767.5000	22.92
768.0000	22.92
768.5000	22.92
769.0000	22.92
769.5000	22.92
770.0000	22.92
770.5000	22.91
771.0000	22.91
771.5000	22.91
772.0000	22.91
772.5000	22.92
773.0000	22.90
773.5000	22.91
774.0000	22.91
774.5000	22.91
775.0000	22.91
775.5000	22.92
776.0000	22.92
776.5000	22.92
777.0000	22.91
777.5000	22.92
778.0000	22.92
778.5000	22.91
779.0000	22.91
779.5000	22.91
780.0000	22.91
780.5000	22.91
781.0000	22.91
781.5000	22.91
782.0000	22.91
782.5000	22.90
783.0000	22.91
783.5000	22.90
784.0000	22.90
784.5000	22.89
785.0000	22.89
785.5000	22.89
786.0000	22.89
786.5000	22.89
787.0000	22.89
787.5000	22.89
788.0000	22.90
788.5000	22.89
789.0000	22.90
789.5000	22.90
790.0000	22.89
790.5000	22.90
791.0000	22.90
791.5000	22.89
792.0000	22.90
792.5000	22.90
793.0000	22.90
793.5000	22.90
794.0000	22.91
794.5000	22.91
795.0000	22.91
795.5000	22.91
796.0000	22.91
796.5000	22.91
797.0000	22.91
797.5000	22.91
798.0000	22.91
798.5000	22.92
799.0000	22.92
799.5000	22.92
800.0000	22.92
800.5000	22.92
801.0000	22.92
801.5000	22.92
802.0000	22.92
802.5000	22.92
803.0000	22.92
803.5000	22.92
804.0000	22.92
804.5000	22.93
805.0000	22.93
805.5000	22.92
806.0000	22.93
806.5000	22.93
807.0000	22.92
807.5000	22.93
808.0000	22.93
808.5000	22.93
809.0000	22.93
809.5000	22.93
810.0000	22.94
810.5000	22.94
811.0000	22.94
811.5000	22.94
812.0000	22.94
812.5000	22.94
813.0000	22.94
813.5000	22.94
814.0000	22.94
814.5000	22.95
815.0000	22.94
815.5000	22.93
816.0000	22.94
816.5000	22.95
817.0000	22.95
817.5000	22.94
818.0000	22.95
818.5000	22.94
819.0000	22.95
819.5000	22.94
820.0000	22.95
820.5000	22.95
821.0000	22.95
821.5000	22.96
822.0000	22.96
822.5000	22.96
823.0000	22.96
823.5000	22.95
824.0000	22.96
824.5000	22.95
825.0000	22.95
825.5000	22.96
826.0000	22.96
826.5000	22.96
827.0000	22.96
827.5000	22.96
828.0000	22.95
828.5000	22.95
829.0000	22.95
829.5000	22.95
830.0000	22.94
830.5000	22.95
831.0000	22.95
831.5000	22.95
832.0000	22.94
832.5000	22.95
833.0000	22.95
833.5000	22.95
834.0000	22.95
834.5000	22.95
835.0000	22.94
835.5000	22.95
836.0000	22.95
836.5000	22.95
837.0000	22.95
837.5000	22.95
838.0000	22.95
838.5000	22.95
839.0000	22.95
839.5000	22.95
840.0000	22.96
840.5000	22.95
841.0000	22.96
841.5000	22.96
842.0000	22.96
842.5000	22.97
843.0000	22.97
843.5000	22.97
844.0000	22.97
844.5000	22.97
845.0000	22.97
845.5000	22.97
846.0000	22.96
846.5000	22.96
847.0000	22.96
847.5000	22.95
848.0000	22.95
848.5000	22.94
849.0000	22.95
849.5000	22.95
850.0000	22.94
850.5000	22.94
851.0000	22.94
851.5000	22.94
852.0000	22.94
852.5000	22.94
853.0000	22.94
853.5000	22.94
854.0000	22.95
854.5000	22.94
855.0000	22.94
855.5000	22.95
856.0000	22.95
856.5000	22.95
857.0000	22.95
857.5000	22.95
858.0000	22.95
858.5000	22.95
859.0000	22.95
859.5000	22.95
860.0000	22.95
860.5000	22.96
861.0000	22.95
861.5000	22.95
862.0000	22.95
862.5000	22.95
863.0000	22.95
863.5000	22.95
864.0000	22.95
864.5000	22.95
865.0000	22.95
865.5000	22.95
866.0000	22.96
866.5000	22.95
867.0000	22.95
867.5000	22.95
868.0000	22.95
868.5000	22.95
869.0000	22.95
869.5000	22.95
870.0000	22.95
870.5000	22.96
871.0000	22.96
871.5000	22.96
872.0000	22.96
872.5000	22.96
873.0000	22.96
873.5000	22.96
874.0000	22.96
874.5000	22.96
875.0000	22.96
875.5000	22.96
876.0000	22.97
876.5000	22.96
877.0000	22.96
877.5000	22.97
878.0000	22.97
878.5000	22.97
879.0000	22.97
879.5000	22.97
880.0000	22.97
880.5000	22.97
881.0000	22.96
881.5000	22.97
882.0000	22.97
882.5000	22.97
883.0000	22.97
883.5000	22.98
884.0000	22.98
884.5000	22.98
885.0000	22.98
885.5000	22.98
886.0000	22.98
886.5000	22.97
887.0000	22.97
887.5000	22.97
888.0000	22.98
888.5000	22.98
889.0000	22.97
889.5000	22.97
890.0000	22.98
890.5000	22.98
891.0000	22.98
891.5000	22.98
892.0000	22.98
892.5000	22.97
893.0000	22.98
893.5000	22.98
894.0000	22.98
894.5000	22.98
895.0000	22.97
895.5000	22.97
896.0000	22.98
896.5000	22.98
897.0000	22.98
897.5000	22.98
898.0000	22.98
898.5000	22.98
899.0000	22.98
899.5000	22.99
900.0000	22.99
900.5000	22.98
901.0000	22.99
901.5000	22.98
902.0000	22.99
902.5000	22.99
903.0000	22.99
903.5000	22.99
904.0000	22.99
904.5000	22.98
905.0000	22.99
905.5000	22.98
906.0000	22.99
906.5000	22.98
907.0000	22.98
907.5000	22.98
908.0000	22.98
908.5000	22.98
909.0000	22.98
909.5000	22.98
910.0000	22.99
910.5000	22.98
911.0000	22.98
911.5000	22.98
912.0000	22.99
912.5000	22.99
913.0000	22.99
913.5000	22.99
914.0000	22.99
914.5000	22.99
915.0000	22.99
915.5000	22.98
916.0000	22.98
916.5000	22.98
917.0000	22.99
917.5000	22.98
918.0000	22.98
918.5000	22.99
919.0000	22.98
919.5000	22.99
920.0000	22.98
920.5000	22.99
921.0000	22.99
921.5000	22.99
922.0000	22.99
922.5000	23.00
923.0000	22.99
923.5000	23.00
924.0000	23.00
924.5000	22.99
925.0000	23.00
925.5000	22.99
926.0000	23.00
926.5000	22.99
927.0000	22.99
927.5000	23.00
928.0000	23.00
928.5000	23.00
929.0000	23.00
929.5000	23.00
930.0000	23.00
930.5000	23.00
931.0000	23.00
931.5000	23.00
932.0000	23.01
932.5000	23.00
933.0000	23.00
933.5000	23.01
934.0000	23.01
934.5000	23.01
935.0000	23.01
935.5000	23.01
936.0000	23.01
936.5000	23.01
937.0000	23.01
937.5000	23.01
938.0000	23.01
938.5000	23.01
939.0000	23.01
939.5000	23.02
940.0000	23.02
940.5000	23.03
941.0000	23.02
941.5000	23.02
942.0000	23.03
942.5000	23.02
943.0000	23.02
943.5000	23.03
944.0000	23.02
944.5000	23.03
945.0000	23.03
945.5000	23.02
946.0000	23.02
946.5000	23.02
947.0000	23.02
947.5000	23.02
948.0000	23.02
948.5000	23.02
949.0000	23.02
949.5000	23.02
950.0000	23.02
950.5000	23.03
951.0000	23.03
951.5000	23.02
952.0000	23.03
952.5000	23.03
953.0000	23.03
953.5000	23.03
954.0000	23.03
954.5000	23.03
955.0000	23.03
955.5000	23.03
956.0000	23.03
956.5000	23.03
957.0000	23.03
957.5000	23.03
958.0000	23.03
958.5000	23.03
959.0000	23.03
959.5000	23.03
960.0000	23.03
960.5000	23.03
961.0000	23.03
961.5000	23.03
962.0000	23.03
962.5000	23.03
963.0000	23.03
963.5000	23.03
964.0000	23.03
964.5000	23.04
965.0000	23.03
965.5000	23.04
966.0000	23.03
966.5000	23.04
967.0000	23.04
967.5000	23.04
968.0000	23.04
968.5000	23.04
969.0000	23.04
969.5000	23.04
970.0000	23.04
970.5000	23.04
971.0000	23.04
971.5000	23.04
972.0000	23.04
972.5000	23.04
973.0000	23.04
973.5000	23.04
974.0000	23.04
974.5000	23.04
975.0000	23.05
975.5000	23.04
976.0000	23.04
976.5000	23.04
977.0000	23.04
977.5000	23.04
978.0000	23.03
978.5000	23.04
979.0000	23.04
979.5000	23.03
980.0000	23.03
980.5000	23.03
981.0000	23.03
981.5000	23.03
982.0000	23.03
982.5000	23.03
983.0000	23.03
983.5000	23.02
984.0000	23.03
984.5000	23.03
985.0000	23.03
985.5000	23.03
986.0000	23.03
986.5000	23.03
987.0000	23.04
987.5000	23.04
988.0000	23.04
988.5000	23.04
989.0000	23.03
989.5000	23.04
990.0000	23.04
990.5000	23.04
991.0000	23.04
991.5000	23.04
992.0000	23.05
992.5000	23.05
993.0000	23.05
993.5000	23.05
994.0000	23.05
994.5000	23.05
995.0000	23.05
995.5000	23.05
996.0000	23.05
996.5000	23.06
997.0000	23.05
997.5000	23.06
998.0000	23.06
998.5000	23.06
999.0000	23.07
999.5000	23.07
1000.0000	23.06
1000.5000	23.07
1001.0000	23.07
1001.5000	23.07
1002.0000	23.06
1002.5000	23.07
1003.0000	23.06
1003.5000	23.07
1004.0000	23.07
1004.5000	23.06
1005.0000	23.07
1005.5000	23.07
1006.0000	23.07
1006.5000	23.07
1007.0000	23.08
1007.5000	23.08
1008.0000	23.07
1008.5000	23.07
1009.0000	23.08
1009.5000	23.08
1010.0000	23.08
1010.5000	23.08
1011.0000	23.08
1011.5000	23.08
1012.0000	23.08
1012.5000	23.09
1013.0000	23.08
1013.5000	23.09
1014.0000	23.08
1014.5000	23.08
1015.0000	23.08
1015.5000	23.09
1016.0000	23.09
1016.5000	23.09
1017.0000	23.09
1017.5000	23.09
1018.0000	23.09
1018.5000	23.09
1019.0000	23.09
1019.5000	23.09
1020.0000	23.09
1020.5000	23.09
1021.0000	23.09
1021.5000	23.08
1022.0000	23.09
1022.5000	23.09
1023.0000	23.10
1023.5000	23.10
1024.0000	23.10
1024.5000	23.10
1025.0000	23.10
1025.5000	23.10
1026.0000	23.10
1026.5000	23.10
1027.0000	23.10
1027.5000	23.11
1028.0000	23.11
1028.5000	23.10
1029.0000	23.10
1029.5000	23.10
1030.0000	23.09
1030.5000	23.09
1031.0000	23.10
1031.5000	23.09
1032.0000	23.09
1032.5000	23.09
1033.0000	23.09
1033.5000	23.09
1034.0000	23.09
1034.5000	23.10
1035.0000	23.10
1035.5000	23.10
1036.0000	23.09
1036.5000	23.10
1037.0000	23.10
1037.5000	23.10
1038.0000	23.10
1038.5000	23.10
1039.0000	23.09
1039.5000	23.10
1040.0000	23.10
1040.5000	23.11
1041.0000	23.11
1041.5000	23.11
1042.0000	23.11
1042.5000	23.11
1043.0000	23.12
1043.5000	23.11
1044.0000	23.11
1044.5000	23.12
1045.0000	23.12
1045.5000	23.12
1046.0000	23.11
1046.5000	23.12
1047.0000	23.12
1047.5000	23.11
1048.0000	23.11
1048.5000	23.12
1049.0000	23.12
1049.5000	23.11
1050.0000	23.10
1050.5000	23.11
1051.0000	23.11
1051.5000	23.11
1052.0000	23.10
1052.5000	23.11
1053.0000	23.11
1053.5000	23.11
1054.0000	23.11
1054.5000	23.11
1055.0000	23.11
1055.5000	23.10
1056.0000	23.10
1056.5000	23.10
1057.0000	23.10
1057.5000	23.09
1058.0000	23.10
1058.5000	23.09
1059.0000	23.08
1059.5000	23.07
1060.0000	23.06
1060.5000	23.06
1061.0000	23.05
1061.5000	23.04
1062.0000	23.04
1062.5000	23.04
1063.0000	23.05
1063.5000	23.04
1064.0000	23.04
1064.5000	23.04
1065.0000	23.04
1065.5000	23.04
1066.0000	23.05
1066.5000	23.04
1067.0000	23.04
1067.5000	23.04
1068.0000	23.04
1068.5000	23.05
1069.0000	23.05
1069.5000	23.04
1070.0000	23.04
1070.5000	23.04
1071.0000	23.04
1071.5000	23.04
1072.0000	23.04
1072.5000	23.03
1073.0000	23.04
1073.5000	23.03
1074.0000	23.04
1074.5000	23.03
1075.0000	23.03
1075.5000	23.03
1076.0000	23.03
1076.5000	23.03
1077.0000	23.04
1077.5000	23.03
1078.0000	23.04
1078.5000	23.04
1079.0000	23.03
1079.5000	23.04
1080.0000	23.03
1080.5000	23.03
1081.0000	23.04
1081.5000	23.04
1082.0000	23.04
1082.5000	23.03
1083.0000	23.04
1083.5000	23.04
1084.0000	23.04
1084.5000	23.03
1085.0000	23.04
1085.5000	23.03
1086.0000	23.04
1086.5000	23.03
1087.0000	23.03
1087.5000	23.03
1088.0000	23.03
1088.5000	23.03
1089.0000	23.03
1089.5000	23.03
1090.0000	23.04
1090.5000	23.03
1091.0000	23.04
1091.5000	23.04
1092.0000	23.04
1092.5000	23.04
1093.0000	23.04
1093.5000	23.04
1094.0000	23.04
1094.5000	23.04
1095.0000	23.03
1095.5000	23.03
1096.0000	23.03
1096.5000	23.02
1097.0000	23.01
1097.5000	23.01
1098.0000	23.00
1098.5000	22.99
1099.0000	23.00
1099.5000	23.00
1100.0000	22.99
1100.5000	22.99
1101.0000	22.98
1101.5000	22.99
1102.0000	22.98
1102.5000	22.98
1103.0000	22.98
1103.5000	22.98
1104.0000	22.98
1104.5000	22.97
1105.0000	22.98
1105.5000	22.98
1106.0000	22.98
1106.5000	22.97
1107.0000	22.98
1107.5000	22.98
1108.0000	22.98
1108.5000	22.98
1109.0000	22.98
1109.5000	22.99
1110.0000	22.99
1110.5000	22.97
1111.0000	22.96
1111.5000	22.96
1112.0000	22.95
1112.5000	22.96
1113.0000	22.95
1113.5000	22.95
1114.0000	22.95
1114.5000	22.95
1115.0000	22.94
1115.5000	22.95
1116.0000	22.94
1116.5000	22.94
1117.0000	22.94
1117.5000	22.94
1118.0000	22.94
1118.5000	22.95
1119.0000	22.95
1119.5000	22.95
1120.0000	22.95
1120.5000	22.95
1121.0000	22.95
1121.5000	22.95
1122.0000	22.95
1122.5000	22.95
1123.0000	22.95
1123.5000	22.95
1124.0000	22.95
1124.5000	22.96
1125.0000	22.95
1125.5000	22.95
1126.0000	22.94
1126.5000	22.93
1127.0000	22.92
1127.5000	22.91
1128.0000	22.92
1128.5000	22.91
1129.0000	22.92
1129.5000	22.91
1130.0000	22.91
1130.5000	22.91
1131.0000	22.91
1131.5000	22.91
1132.0000	22.91
1132.5000	22.91
1133.0000	22.90
1133.5000	22.90
1134.0000	22.89
1134.5000	22.89
1135.0000	22.89
1135.5000	22.88
1136.0000	22.88
